# gas name
oxygen O2
# reference temperature (in K)
293.15
# reference pressure (absolute) (in Pa)
1.0e5
# minimum temperature (in K)
100.0
# maximum temperature (in K)
1000.0
# density at ref. pressure and ref. temperature (in kg/m3)
1.3137642
#	T(K)		cp(J/kg/K)		mu(kg/m/s)		lam(W/m/K)
1.0000E+02		9.3520E+02		7.3806E-06		9.2984E-03
1.1000E+02		9.3155E+02		8.1981E-06		1.0314E-02
1.2000E+02		9.2798E+02		8.9963E-06		1.1306E-02
1.3000E+02		9.2461E+02		9.7753E-06		1.2276E-02
1.4000E+02		9.2182E+02		1.0536E-05		1.3223E-02
1.5000E+02		9.1964E+02		1.1278E-05		1.4148E-02
1.6000E+02		9.1797E+02		1.2003E-05		1.5053E-02
1.7000E+02		9.1671E+02		1.2712E-05		1.5937E-02
1.8000E+02		9.1575E+02		1.3405E-05		1.6803E-02
1.9000E+02		9.1506E+02		1.4083E-05		1.7651E-02
2.0000E+02		9.1458E+02		1.4747E-05		1.8483E-02
2.2000E+02		9.1421E+02		1.6035E-05		2.0102E-02
2.4000E+02		9.1455E+02		1.7275E-05		2.1670E-02
2.6000E+02		9.1560E+02		1.8472E-05		2.3195E-02
2.8000E+02		9.1737E+02		1.9628E-05		2.4688E-02
3.0000E+02		9.1987E+02		2.0748E-05		2.6153E-02
3.5000E+02		9.2905E+02		2.3410E-05		2.9735E-02
4.0000E+02		9.4165E+02		2.5905E-05		3.3242E-02
4.5000E+02		9.5641E+02		2.8260E-05		3.6696E-02
5.0000E+02		9.7215E+02		3.0500E-05		4.0100E-02
5.5000E+02		9.8796E+02		3.2642E-05		4.3447E-02
6.0000E+02		1.0033E+03		3.4698E-05		4.6730E-02
6.5000E+02		1.0177E+03		3.6681E-05		4.9944E-02
7.0000E+02		1.0310E+03		3.8598E-05		5.3086E-02
7.5000E+02		1.0433E+03		4.0458E-05		5.6154E-02
8.0000E+02		1.0545E+03		4.2266E-05		5.9150E-02
8.5000E+02		1.0647E+03		4.4027E-05		6.2075E-02
9.0000E+02		1.0739E+03		4.5747E-05		6.4934E-02
9.5000E+02		1.0822E+03		4.7429E-05		6.7728E-02
1.0000E+03		1.0898E+03		4.9075E-05		7.0463E-02
