# gas name					
nitrous oxyde					
# reference temperature (in K)					
300					
# reference pressure (absolute) (in Pa)					
1.00E+05					
# minimum temperature (in K)					
182					
# maximum temperature (in K)					
1000					
# density at ref. pressure and ref. temperature (in kg/m3)					
1.8036					
#	T(K)	cp(J/kg/K)		mu(kg/m/s)	lam(W/m/K)
	182	756.2455491		9.04772E-06	0.008425533
	190	765.0786251		9.44728E-06	0.009057509
	200	775.9816312		0.000009944	0.009847072
	210	786.7318951		1.04377E-05	0.010636183		
	220	797.3304573		1.09283E-05	0.011424843		
	230	807.7783632		1.14159E-05	0.012213051		
	240	818.0766624		1.19005E-05	0.013000808		
	250	828.2264091		0.000012382	0.013788113		
	260	838.2286618		1.28605E-05	0.014574966		
	270	848.0844836		1.33359E-05	0.015361367		
	280	857.7949417		1.38083E-05	0.016147317		
	290	867.3611082		1.42777E-05	0.016932815		
	300	876.7840593		0.000014744	0.017717862		
	310	886.0648758		1.52073E-05	0.018502457		
	320	895.2046428		1.56675E-05	0.0192866		
	330	904.2044501		1.61247E-05	0.020070292		
	340	913.0653916		1.65789E-05	0.020853532		
	350	921.7885659		0.00001703	0.021636321		
	360	930.375076		1.74781E-05	0.022418657		
	370	938.8260292		1.79231E-05	0.023200542								
	380	947.1425374		1.83651E-05	0.023981976								
	390	955.3257168		1.88041E-05	0.024762958								
	400	963.3766882		0.00001924	0.025543488								
	410	971.2965766		1.96729E-05	0.026323567								
	420	979.0865118		2.01027E-05	0.027103194								
	430	986.7476277		2.05295E-05	0.027882369								
	440	994.2810628		2.09533E-05	0.028661092								
	450	1001.68796		0.000021374	0.029439365								
	460	1008.969467		2.17917E-05	0.030217185								
	470	1016.126735		2.22063E-05	0.030994554								
	480	1023.16092		2.26179E-05	0.031771471								
	490	1030.073184		2.30265E-05	0.032547936								
	500	1036.864691		0.000023432	0.03332395								
	510	1043.53661		2.38345E-05	0.034099512								
	520	1050.090117		2.42339E-05	0.034874623								
	530	1056.526388		2.46303E-05	0.035649282								
	540	1062.846608		2.50237E-05	0.036423489								
	550	1069.051963		0.000025414	0.037197245								
	560	1075.143646		2.58013E-05	0.037970548								
	570	1081.122852		2.61855E-05	0.038743401								
	580	1086.990781		2.65667E-05	0.039515802								
	590	1092.74864		2.69449E-05	0.040287751								
	600	1098.397637		0.00002732	0.041059248								
	610	1103.938987		2.76921E-05	0.041830294								
	620	1109.373908		2.80611E-05	0.042600888								
	630	1114.703623		2.84271E-05	0.04337103								
	640	1119.929358		2.87901E-05	0.044140721								
	650	1125.052346		0.00002915	0.044909961								
	660	1130.073823		2.95069E-05	0.045678748								
	670	1134.99503		2.98607E-05	0.046447084								
	680	1139.817211		3.02115E-05	0.047214968								
	690	1144.541615		3.05593E-05	0.047982401
	700	1149.169498		0.000030904	0.048749382
	710	1153.702117		3.12457E-05	0.049515911
	720	1158.140735		3.15843E-05	0.050281989
	730	1162.486619		3.19199E-05	0.051047615
	740	1166.741041		3.22525E-05	0.05181279
	750	1170.905277		0.000032582	0.052577513
	760	1174.980607		3.29085E-05	0.053341784
	770	1178.968317		3.32319E-05	0.054105603
	780	1182.869696		3.35523E-05	0.054868971
	790	1186.686038		3.38697E-05	0.055631887
	800	1190.41864		0.000034184	0.056394352
	810	1194.068807		3.44953E-05	0.057156365
	820	1197.637845		3.48035E-05	0.057917926
	830	1201.127065		3.51087E-05	0.058679036
	840	1204.537784		3.54109E-05	0.059439694
	850	1207.871322		0.00003571	0.060199901
	860	1211.129004		3.60061E-05	0.060959655
	870	1214.31216		3.62991E-05	0.061718958
	880	1217.422124		3.65891E-05	0.06247781
	890	1220.460233		3.68761E-05	0.06323621
	900	1223.42783		0.00003716	0.063994158
	910	1226.326263		3.74409E-05	0.064751655
	920	1229.156883		3.77187E-05	0.0655087
	930	1231.921046		3.79935E-05	0.066265293
	940	1234.620112		3.82653E-05	0.067021434
	950	1237.255447		0.000038534	0.067777125
	960	1239.82842		3.87997E-05	0.068532363
	970	1242.340404		3.90623E-05	0.06928715
	980	1244.792779		3.93219E-05	0.070041485
	990	1247.186925		3.95785E-05	0.070795368
	1000	1249.524231		0.000039832	0.0715488
